File: data/new_xptl_data/BET_isotherms/NiPyC-NH2_BET.csv
# BET Surface Area: 475.6134 m²/g
Relative Pressure (p/p°),Quantity Adsorbed (cm³/g STP)
3.20196e-07,8.96767
1.08476e-06,17.9372
1.85778e-06,26.885
2.44736e-06,35.8256
3.51148e-06,44.7435
7.05379e-06,53.6352
1.77374e-05,62.4645
4.46227e-05,71.2767
0.000129736,79.9286
0.000214754,88.289
0.000402601,96.2774
0.000882441,103.524
0.00341173,107.999
0.00879173,108.768
0.0143646,109.237
0.0201122,109.449
0.0259361,109.596
0.0317049,109.73
0.0374696,109.851
0.0432025,109.966
0.0490076,110.055
0.0581132,110.15
0.0672735,110.247
0.0764025,110.334
0.0854859,110.415
0.0944453,110.495
0.103448,110.583
0.112558,110.661
0.121538,110.74
0.130453,110.823
0.139546,110.893
0.148592,110.958
0.251067,109.928
0.350565,108.84
0.450367,107.668
0.550475,106.474
0.649971,105.321
0.750205,104.288
0.884706,103.767
0.945587,105.063
0.987402,109.102
0.891575,106.489
0.789024,107.407
0.688751,109.027
0.588628,110.76
0.488861,112.393
0.396299,112.434
0.289693,113.905
0.189571,115.267
0.0998255,116.282