File: data/new_xptl_data/BET_isotherms/NiPyC_BET.csv
# BET Surface Area: 481.6125 m²/g
Relative Pressure (p/p°),Quantity Adsorbed (cm³/g STP)
3.55e-07,8.90443
1.05747e-06,17.8539
1.89733e-06,26.7794
2.81735e-06,35.7225
4.3201e-06,44.6745
8.31563e-06,53.6095
2.61682e-05,62.484
0.000139382,71.0595
0.00110655,78.3087
0.00296029,84.2587
0.00603739,88.5351
0.0107752,90.6596
0.0161153,91.9908
0.0215555,93.1269
0.0264322,94.9628
0.0298567,98.51
0.0339047,101.305
0.0373983,104.71
0.0423168,106.488
0.0472403,108.115
0.0525623,109.261
0.0615315,110.534
0.0705875,111.645
0.0800354,112.444
0.0894707,113.108
0.0988889,113.708
0.108351,114.243
0.118024,114.677
0.127658,115.111
0.137188,115.482
0.146859,115.826
0.249283,117.113
0.350583,117.659
0.449362,117.841
0.549536,117.908
0.649538,117.901
0.749647,117.807
0.885944,117.694
0.947662,118.06
0.988506,119.495
0.889934,119.165
0.789536,119.765
0.689468,120.343
0.58948,120.875
0.489595,121.275
0.396511,121.201
0.290178,121.024
0.190296,120.504
0.101191,118.916