File: data/experimental_isotherm_data/old_exptl_data/NH2_Xe.csv
p,p0,p/p0,cc,mmol/g,min,,
3.80422,760,0.00500555,0.32188,0.337316,144.3,3,2
6.09748,760,0.008023,0.553535,0.580079,242.6,3,2
7.58038,760,0.00997418,0.639252,0.669907,266,3,2
15.1904,760,0.0199874,1.04854,1.09882,323.6,3,2
29.5047,760,0.038822,1.30529,1.36788,331.6,3,2
45.9728,760,0.0604905,1.50942,1.5818,338.5,3,2
63.2033,760,0.0831622,1.62948,1.70762,343.2,3,2
79.5952,760,0.104731,1.70622,1.78804,346.6,3,2
98.4061,760,0.129482,1.771,1.85593,349.6,3,2
117.733,760,0.154912,1.82432,1.9118,352.4,3,2
137.009,760,0.180275,1.86924,1.95888,355.4,3,2
156.052,760,0.205332,1.90747,1.99894,358.1,3,2
193.597,760,0.254733,1.96556,2.05982,360.7,3,2
231.77,760,0.304961,2.01952,2.11636,363.3,3,2
269.929,760,0.35517,2.06954,2.16878,366.1,3,2
308.007,760,0.405272,2.11596,2.21743,368.8,3,2
346.08,760,0.455368,2.16065,2.26426,371.4,3,2
384.078,760,0.505366,2.20334,2.309,374,3,2
422.076,760,0.555363,2.2462,2.35392,376.8,3,2
460.158,760,0.605471,2.28693,2.3966,379.4,3,2
498.202,760,0.655529,2.32738,2.43899,382.1,3,2
536.109,760,0.705407,2.36795,2.4815,384.8,3,2
574.243,760,0.755583,2.40577,2.52114,387.5,3,2
612.261,760,0.805607,2.44511,2.56236,390.5,3,2
650.247,760,0.855588,2.48381,2.60292,393.5,3,2
688.166,760,0.905482,2.524,2.64504,396.6,3,2
726.049,760,0.955328,2.56245,2.68533,399.4,3,2
760.388,760,1.00051,2.59969,2.72436,402.2,3,2
751.501,760,0.988817,2.59659,2.72111,405.2,3,2
681.294,760,0.896439,2.54533,2.66739,409.3,3,2
605.705,760,0.79698,2.48209,2.60112,413.5,3,2
529.693,760,0.696964,2.41508,2.53089,417,3,2
453.829,760,0.597143,2.34303,2.45539,420.4,3,2
376.967,760,0.496009,2.2683,2.37707,424,3,2
301.28,760,0.396421,2.19055,2.2956,427.1,3,2
224.743,760,0.295714,2.10112,2.20188,432,3,2
148.983,760,0.19603,2.00084,2.09679,437.6,3,2
73.4299,760,0.0966183,1.86647,1.95598,443.7,3,2