File: data/experimental_isotherm_data/old_exptl_data/Ni-PYC-NH2_Xe.csv
p,p0,p/p0,cc,mmol/g,min,,
36.4657,760,0.0479812,0.972248,1.01887,50.8,3,2
58.4174,760,0.076865,1.48257,1.55367,71.4,3,2
76.9275,760,0.10122,1.6758,1.75616,81,3,2
96.7659,760,0.127324,1.81127,1.89813,88.7,3,2
116.882,760,0.153792,1.89914,1.99021,94.3,3,2
136.399,760,0.179472,1.96535,2.0596,99,3,2
155.835,760,0.205046,2.01561,2.11227,102.9,3,2
193.555,760,0.254678,2.08004,2.17979,107,3,2
231.912,760,0.305147,2.12972,2.23185,110.5,3,2
270.164,760,0.355479,2.17071,2.27481,113.5,3,2
308.271,760,0.40562,2.20367,2.30935,116.3,3,2
346.495,760,0.455914,2.23073,2.3377,118.8,3,2
384.398,760,0.505787,2.25961,2.36797,121.9,3,2
422.669,760,0.556143,2.28057,2.38993,124.5,3,2
460.704,760,0.606189,2.30197,2.41236,127.2,3,2
498.739,760,0.656236,2.31996,2.43121,129.8,3,2
536.736,760,0.706232,2.34046,2.4527,133.3,3,2
574.726,760,0.756218,2.35902,2.47215,136.5,3,2
612.809,760,0.806328,2.37578,2.48971,139.8,3,2
650.894,760,0.856439,2.39057,2.50521,143.2,3,2
688.836,760,0.906363,2.40931,2.52485,146.5,3,2
726.938,760,0.956497,2.42336,2.53957,149.8,3,2
761.099,760,1.00145,2.43885,2.5558,153.2,3,2
751.357,760,0.988628,2.4484,2.56581,156.5,3,2
680.734,760,0.895703,2.45448,2.57218,163.3,3,2
604.737,760,0.795707,2.44953,2.567,169.8,3,2
529.028,760,0.696089,2.43727,2.55415,176.2,3,2
452.261,760,0.59508,2.42051,2.53658,182.5,3,2
376.597,760,0.495522,2.40224,2.51744,188.7,3,2
300.25,760,0.395066,2.37429,2.48815,195.6,3,2
223.918,760,0.294629,2.33864,2.45079,203,3,2
148.242,760,0.195055,2.28913,2.3989,210.9,3,2
72.7736,760,0.0957547,2.21589,2.32215,218.1,3,2