File: data/experimental_isotherm_data/old_exptl_data/NiMOF2_Kr_298K.csv
p,P0,p/p0,Volume @ STP,cc/g,mmol/g
21.6242,760,0.0284529,1.21701,2.28246,0.101896
36.6543,760,0.0482293,2.04416,3.83376,0.17115
51.9726,760,0.068385,2.8587,5.3614,0.239348
74.9403,760,0.0986057,4.0318,7.56152,0.337568
112.534,760,0.148071,5.83461,10.9426,0.48851
151.408,760,0.199221,7.55504,14.1692,0.632555
189.891,760,0.249857,9.12976,17.1226,0.764401
228.341,760,0.300449,10.5891,19.8595,0.886586
265.071,760,0.348778,11.8816,22.2836,0.994802
303.253,760,0.399017,13.1333,24.6311,1.0996
342.136,760,0.450179,14.322,26.8605,1.19913
380.54,760,0.500711,15.4144,28.9092,1.29059
416.528,760,0.548063,16.3742,30.7093,1.37095
454.501,760,0.598028,17.3243,32.4912,1.4505
492.973,760,0.648649,18.2273,34.1847,1.5261
531.416,760,0.699232,19.0735,35.7718,1.59695
569.864,760,0.749821,19.8703,37.2661,1.66367
608.204,760,0.800268,20.6193,38.6709,1.72638
646.707,760,0.85093,21.3309,40.0054,1.78596
685.061,760,0.901396,22.0009,41.262,1.84205
723.307,760,0.95172,22.6341,42.4495,1.89507
755.664,760,0.994295,23.1449,43.4075,1.93784
754.005,760,0.992112,23.124,43.3683,1.93609
722.637,760,0.950838,22.636,42.4531,1.89523
644.856,760,0.848495,21.3115,39.9691,1.78433
569.376,760,0.749179,19.8806,37.2854,1.66453
494.233,760,0.650307,18.2803,34.2841,1.53054
417.318,760,0.549103,16.4238,30.8023,1.3751
342.014,760,0.450018,14.3549,26.9222,1.20188
267.201,760,0.35158,11.9997,22.5051,1.00469
190.61,760,0.250803,9.20777,17.2689,0.770932
114.117,760,0.150154,5.95379,11.1661,0.498489
75.9835,760,0.0999783,4.12614,7.73845,0.345466
38.2988,760,0.0503932,2.16907,4.06802,0.181608